Oscilloscope Trace Export		
Festo Didactic LVDAC-EMS 3.21		
		
		
		Ch1		Ch2		Ch3		Ch4		Ch5		Ch6		Ch7		Ch8		
Time 		E1		I1		AI8		AI7		Pm		P1		Off		Off		
(ms)		(V)		(A)		(r/min)		(NÂ·m)		(W)		(W)		()		()		
0.000		17.0		-0.645		-1.1		0.0003		159.55		-10.9						
0.098		37.0		-0.630		2.7		0.0019		160.21		-23.3						
0.195		56.5		-0.634		10.3		0.0019		161.08		-35.8						
0.293		75.2		-0.622		2.7		0.0019		160.21		-46.7						
0.391		94.8		-0.609		4.0		0.0019		160.35		-57.7						
0.488		114.3		-0.598		2.7		0.0003		159.98		-68.4						
0.586		131.3		-0.586		0.1		0.0003		159.69		-76.9						
0.684		147.0		-0.580		4.0		0.0049		160.81		-85.2						
0.781		166.1		-0.556		5.2		0.0019		160.50		-92.4						
0.879		181.7		-0.563		1.4		-0.0027		159.39		-102.3						
0.977		198.3		-0.542		2.7		0.0034		160.43		-107.4						
1.074		211.7		-0.544		4.0		0.0019		160.35		-115.2						
1.172		225.2		-0.529		2.7		0.0003		159.98		-119.2						
1.270		239.1		-0.517		1.4		0.0019		160.06		-123.5						
1.367		254.8		-0.504		2.7		0.0019		160.21		-128.4						
1.465		270.4		-0.491		4.0		0.0003		160.13		-132.9						
1.563		283.0		-0.481		2.7		0.0003		159.98		-136.1						
1.660		292.6		-0.456		0.1		0.0003		159.69		-133.3						
1.758		306.5		-0.430		1.4		0.0019		160.06		-131.9						
1.855		320.0		-0.437		5.2		0.0019		160.50		-139.8						
1.953		330.9		-0.407		2.7		-0.0012		159.76		-134.8						
2.051		340.9		-0.403		0.1		-0.0012		159.47		-137.4						
2.148		350.9		-0.407		2.7		0.0019		160.21		-142.9						
2.246		360.0		-0.372		6.5		0.0003		160.42		-133.8						
2.344		370.9		-0.372		2.7		0.0034		160.43		-137.8						
2.441		385.2		-0.349		2.7		0.0003		159.98		-134.3						
2.539		394.3		-0.317		0.1		-0.0012		159.47		-125.0						
2.637		405.7		-0.321		1.4		0.0019		160.06		-130.3						
2.734		414.3		-0.281		4.0		0.0049		160.81		-116.6						
2.832		421.3		-0.286		5.2		0.0019		160.50		-120.3						
2.930		431.3		-0.262		1.4		-0.0027		159.39		-113.2						
3.027		444.3		-0.239		-5.0		0.0003		159.11		-106.4						
3.125		452.2		-0.210		4.0		0.0019		160.35		-94.9						
3.223		465.7		-0.212		1.4		-0.0012		159.61		-98.8						
3.320		477.4		-0.199		-1.1		0.0003		159.55		-95.2						
3.418		483.9		-0.176		2.7		0.0019		160.21		-85.4						
3.516		493.9		-0.143		2.7		0.0019		160.21		-70.5						
3.613		503.5		-0.134		1.4		0.0003		159.84		-67.7						
3.711		511.7		-0.099		2.7		-0.0012		159.76		-50.5						
3.809		520.9		-0.092		4.0		0.0019		160.35		-48.1						
3.906		527.0		-0.065		5.2		0.0049		160.95		-34.3						
4.004		535.2		-0.034		5.2		-0.0012		160.05		-18.0						
4.102		542.2		-0.025		1.4		-0.0012		159.61		-13.7						
4.199		548.7		0.006		2.7		0.0065		160.89		3.5						
4.297		552.2		0.036		5.2		0.0049		160.95		19.7						
4.395		557.8		0.055		4.0		0.0049		160.81		30.5						
4.492		556.1		0.069		4.0		0.0049		160.81		38.5						
4.590		557.4		0.105		2.7		0.0019		160.21		58.5						
4.688		559.1		0.134		1.4		0.0019		160.06		75.1						
4.785		554.8		0.147		4.0		0.0049		160.81		81.5						
4.883		558.7		0.164		6.5		0.0034		160.87		91.5						
4.980		553.9		0.181		2.7		-0.0012		159.76		100.0						
5.078		552.2		0.197		-1.1		0.0034		160.00		109.0						
5.176		553.5		0.241		5.2		0.0034		160.73		133.6						
5.273		546.1		0.235		2.7		0.0034		160.43		128.4						
5.371		542.6		0.265		1.4		0.0034		160.29		143.6						
5.469		541.7		0.290		4.0		0.0034		160.58		157.0						
5.566		539.1		0.315		4.0		0.0034		160.58		169.8						
5.664		531.7		0.328		4.0		0.0019		160.35		174.2						
5.762		527.4		0.346		2.7		0.0019		160.21		182.7						
5.859		520.0		0.353		4.0		0.0065		161.03		183.4						
5.957		511.3		0.359		6.5		0.0049		161.10		183.6						
6.055		504.8		0.399		4.0		0.0019		160.35		201.4						
6.152		495.2		0.397		1.4		0.0003		159.84		196.5						
6.250		488.7		0.416		4.0		0.0034		160.58		203.2						
6.348		480.0		0.426		10.3		0.0019		161.08		204.6						
6.445		470.4		0.447		4.0		0.0049		160.81		210.4						
6.543		463.0		0.470		5.2		0.0034		160.73		217.8						
6.641		453.5		0.472		5.2		0.0003		160.27		214.2						
6.738		445.2		0.493		2.7		0.0034		160.43		219.7						
6.836		434.8		0.498		5.2		0.0065		161.18		216.4						
6.934		425.7		0.500		9.1		0.0065		161.62		212.7						
7.031		416.1		0.517		2.7		-0.0027		159.53		214.9						
7.129		407.0		0.508		4.0		0.0049		160.81		206.8						
7.227		391.7		0.540		4.0		0.0034		160.58		211.4						
7.324		387.0		0.548		4.0		0.0019		160.35		212.1						
7.422		377.8		0.554		2.7		0.0034		160.43		209.4						
7.520		370.0		0.582		4.0		0.0034		160.58		215.2						
7.617		361.3		0.577		4.0		0.0049		160.81		208.6						
7.715		346.1		0.588		4.0		0.0019		160.35		203.5						
7.813		337.0		0.609		2.7		0.0034		160.43		205.2						
7.910		323.0		0.617		5.2		0.0049		160.95		199.4						
8.008		313.5		0.630		5.2		0.0049		160.95		197.5						
8.105		302.6		0.655		6.5		0.0019		160.64		198.2						
8.203		286.5		0.666		1.4		0.0003		159.84		190.7						
8.301		270.4		0.670		4.0		0.0049		160.81		181.1						
8.398		253.5		0.678		7.8		0.0019		160.79		171.9						
8.496		240.4		0.680		4.0		0.0049		160.81		163.6						
8.594		223.9		0.693		5.2		0.0034		160.73		155.2						
8.691		208.3		0.701		-5.0		0.0019		159.34		146.1						
8.789		192.2		0.689		-5.0		0.0034		159.56		132.4						
8.887		175.2		0.687		-3.7		0.0049		159.93		120.3						
8.984		154.8		0.697		-1.1		0.0049		160.22		107.9						
9.082		139.1		0.697		-3.7		-0.0012		159.03		97.0						
9.180		123.9		0.697		-3.7		0.0034		159.71		86.4						
9.277		111.7		0.680		-2.4		0.0034		159.85		76.0						
9.375		96.1		0.691		-3.7		0.0019		159.48		66.4						
9.473		81.7		0.689		-3.7		0.0034		159.71		56.3						
9.570		65.7		0.674		-3.7		0.0019		159.48		44.3						
9.668		43.5		0.680		-5.0		0.0034		159.56		29.6						
9.766		24.3		0.668		-3.7		0.0019		159.48		16.3						
9.863		7.4		0.666		-5.0		0.0019		159.34		4.9						
9.961		-13.9		0.643		-3.7		0.0034		159.71		-8.9						
10.059		-32.6		0.640		-2.4		0.0049		160.08		-20.9						
10.156		-51.7		0.638		-2.4		0.0019		159.63		-33.0						
10.254		-70.0		0.613		-6.3		-0.0027		158.52		-42.9						
10.352		-90.4		0.611		-6.3		0.0019		159.19		-55.3						
10.449		-106.5		0.592		-2.4		0.0019		159.63		-63.1						
10.547		-127.8		0.580		-5.0		0.0034		159.56		-74.1						
10.645		-144.8		0.588		-3.7		0.0034		159.71		-85.1						
10.742		-163.9		0.563		-3.7		0.0019		159.48		-92.2						
10.840		-177.0		0.569		-5.0		0.0034		159.56		-100.7						
10.938		-194.3		0.550		-3.7		0.0034		159.71		-106.9						
11.035		-206.5		0.544		0.1		0.0034		160.14		-112.3						
11.133		-221.3		0.529		-5.0		-0.0012		158.89		-117.1						
11.230		-237.4		0.506		-5.0		0.0034		159.56		-120.1						
11.328		-250.9		0.504		-1.1		0.0034		160.00		-126.4						
11.426		-267.0		0.493		-3.7		0.0019		159.48		-131.7						
11.523		-281.3		0.483		-5.0		0.0034		159.56		-135.9						
11.621		-293.0		0.468		-5.0		0.0034		159.56		-137.2						
11.719		-303.9		0.458		-2.4		0.0034		159.85		-139.1						
11.816		-315.7		0.456		-2.4		0.0034		159.85		-143.8						
11.914		-328.7		0.433		-3.7		0.0019		159.48		-142.2						
12.012		-341.3		0.418		-3.7		0.0049		159.93		-142.6						
12.109		-351.3		0.391		-2.4		0.0034		159.85		-137.2						
12.207		-359.6		0.391		-2.4		0.0019		159.63		-140.4						
12.305		-371.7		0.363		-6.3		-0.0012		158.74		-135.0						
12.402		-383.9		0.340		-5.0		0.0019		159.34		-130.6						
12.500		-391.3		0.334		-5.0		-0.0150		156.87		-130.6						
12.598		-403.5		0.323		-2.4		0.0034		159.85		-130.5						
12.695		-410.9		0.300		-1.1		0.0034		160.00		-123.4						
12.793		-426.1		0.292		-3.7		0.0019		159.48		-124.4						
12.891		-430.0		0.273		-6.3		0.0019		159.19		-117.4						
12.988		-443.5		0.254		-3.7		0.0049		159.93		-112.7						
13.086		-450.0		0.241		0.1		0.0049		160.37		-108.7						
13.184		-456.1		0.216		-3.7		0.0003		159.26		-98.6						
13.281		-473.5		0.195		-5.0		0.0034		159.56		-92.5						
13.379		-482.6		0.174		-3.7		0.0034		159.71		-84.1						
13.477		-488.7		0.162		-3.7		0.0034		159.71		-79.0						
13.574		-500.0		0.141		-3.7		0.0034		159.71		-70.3						
13.672		-514.3		0.107		-3.7		0.0019		159.48		-55.1						
13.770		-523.0		0.082		-5.0		0.0019		159.34		-42.8						
13.867		-526.5		0.073		-3.7		0.0019		159.48		-38.7						
13.965		-535.2		0.044		-5.0		0.0019		159.34		-23.6						
14.063		-542.6		0.025		-3.7		0.0049		159.93		-13.7						
14.160		-550.4		-0.006		-1.1		0.0049		160.22		3.5						
14.258		-551.7		-0.017		-2.4		0.0019		159.63		9.3						
14.355		-558.7		-0.046		-6.3		-0.0043		158.29		25.8						
14.453		-552.6		-0.069		-3.7		0.0034		159.71		38.3						
14.551		-556.5		-0.105		-3.7		-0.0043		158.58		58.4						
14.648		-558.7		-0.124		-3.7		0.0003		159.26		69.2						
14.746		-557.8		-0.155		-2.4		0.0003		159.40		86.7						
14.844		-557.8		-0.172		-3.7		-0.0012		159.03		96.0						
14.941		-554.3		-0.183		-5.0		-0.0012		158.89		101.3						
15.039		-555.2		-0.210		-3.7		0.0003		159.26		116.6						
15.137		-552.6		-0.229		-1.1		0.0003		159.55		126.5						
15.234		-552.6		-0.258		-3.7		-0.0012		159.03		142.7						
15.332		-549.6		-0.271		-7.5		0.0003		158.82		148.9						
15.430		-547.0		-0.292		-2.4		0.0003		159.40		159.6						
15.527		-542.6		-0.307		-3.7		-0.0012		159.03		166.3						
15.625		-535.7		-0.321		-5.0		-0.0012		158.89		172.1						
15.723		-530.4		-0.338		-5.0		0.0003		159.11		179.3						
15.820		-527.8		-0.363		-2.4		0.0019		159.63		191.7						
15.918		-518.3		-0.378		-2.4		0.0003		159.40		195.9						
16.016		-511.3		-0.403		-3.7		-0.0012		159.03		206.1						
16.113		-501.7		-0.414		-3.7		0.0019		159.48		207.5						
16.211		-496.1		-0.422		-1.1		0.0034		160.00		209.4						
16.309		-486.5		-0.441		-1.1		0.0003		159.55		214.5						
16.406		-479.1		-0.458		-5.0		-0.0027		158.66		219.3						
16.504		-467.4		-0.468		-6.3		0.0034		159.42		218.9						
16.602		-460.9		-0.468		-3.7		-0.0211		156.11		215.8						
16.699		-453.5		-0.479		-3.7		0.0003		159.26		217.1						
16.797		-443.5		-0.491		-3.7		0.0003		159.26		217.9						
16.895		-430.0		-0.504		-3.7		-0.0012		159.03		216.7						
16.992		-421.3		-0.523		-5.0		-0.0027		158.66		220.3						
17.090		-410.0		-0.529		-2.4		0.0019		159.63		216.9						
17.188		-403.0		-0.535		-1.1		0.0003		159.55		215.8						
17.285		-392.6		-0.550		-2.4		0.0003		159.40		216.0						
17.383		-378.7		-0.571		-7.5		0.0019		159.05		216.3						
17.480		-373.0		-0.586		-1.1		0.0034		160.00		218.5						
17.578		-363.9		-0.584		-2.4		0.0003		159.40		212.4						
17.676		-351.7		-0.592		-3.7		-0.0012		159.03		208.3						
17.773		-340.9		-0.611		-3.7		0.0003		159.26		208.3						
17.871		-330.0		-0.632		-3.7		0.0019		159.48		208.6						
17.969		-319.1		-0.645		-2.4		0.0019		159.63		205.7						
18.066		-308.7		-0.653		-5.0		-0.0012		158.89		201.6						
18.164		-291.3		-0.670		-5.0		0.0019		159.34		195.1						
18.262		-277.4		-0.674		-2.4		0.0019		159.63		187.0						
18.359		-260.4		-0.680		-1.1		0.0003		159.55		177.2						
18.457		-248.3		-0.691		-5.0		-0.0027		158.66		171.5						
18.555		-232.6		-0.682		-5.0		0.0034		159.56		158.7						
18.652		-214.8		-0.693		-3.7		-0.0334		154.31		148.8						
18.750		-198.3		-0.691		-5.0		0.0019		159.34		137.0						
18.848		-181.7		-0.699		-3.7		0.0019		159.48		127.1						
18.945		-166.5		-0.687		-3.7		0.0003		159.26		114.3						
19.043		-148.3		-0.697		-6.3		-0.0012		158.74		103.4						
19.141		-135.7		-0.703		-5.0		0.0034		159.56		95.4						
19.238		-120.0		-0.699		-2.4		0.0003		159.40		83.9						
19.336		-106.1		-0.687		-5.0		0.0019		159.34		72.8						
19.434		-87.4		-0.689		-8.8		0.0003		158.68		60.2						
19.531		-70.9		-0.678		-5.0		0.0019		159.34		48.1						
19.629		-54.8		-0.668		-3.7		0.0003		159.26		36.6						
19.727		-33.5		-0.682		-7.5		-0.0058		157.93		22.8						
19.824		-15.2		-0.670		-5.0		-0.0027		158.66		10.2						
19.922		6.5		-0.651		-3.7		-0.0027		158.81		-4.2						
20.020		26.1		-0.645		-3.7		-0.0058		158.36		-16.8						
20.117		44.8		-0.649		-5.0		-0.0058		158.21		-29.1						
20.215		66.5		-0.626		-6.3		-0.0058		158.07		-41.6						
20.313		82.6		-0.615		-5.0		-0.0027		158.66		-50.8						
20.410		100.9		-0.617		-3.7		-0.0058		158.36		-62.3						
20.508		118.7		-0.596		-6.3		-0.0073		157.84		-70.8						
20.605		140.0		-0.582		-6.3		-0.0027		158.52		-81.4						
20.703		153.5		-0.567		-3.7		-0.0073		158.13		-87.0						
20.801		169.1		-0.565		-6.3		-0.0043		158.29		-95.5						
20.898		187.8		-0.552		-3.7		-0.0043		158.58		-103.7						
20.996		200.4		-0.544		-5.0		-0.0058		158.21		-109.0						
21.094		215.7		-0.535		-7.5		-0.0058		157.93		-115.5						
21.191		229.6		-0.529		-6.3		-0.0027		158.52		-121.5						
21.289		243.0		-0.519		-1.1		-0.0027		159.10		-126.1						
21.387		258.7		-0.506		-6.3		-0.0043		158.29		-130.9						
21.484		274.8		-0.489		-10.1		-0.0027		158.08		-134.4						
21.582		283.5		-0.479		-3.7		-0.0043		158.58		-135.7						
21.680		295.2		-0.458		-5.0		-0.0043		158.44		-135.1						
21.777		308.7		-0.447		-6.3		-0.0058		158.07		-138.1						
21.875		320.9		-0.435		-5.0		-0.0043		158.44		-139.5						
21.973		329.6		-0.424		-5.0		-0.0043		158.44		-139.8						
22.070		343.0		-0.401		-5.0		-0.0073		157.99		-137.6						
22.168		352.6		-0.384		-7.5		-0.0058		157.93		-135.5						
22.266		364.8		-0.378		-6.3		-0.0058		158.07		-137.9						
22.363		378.3		-0.353		-3.7		-0.0027		158.81		-133.4						
22.461		386.1		-0.344		-3.7		-0.0073		158.13		-133.0						
22.559		398.3		-0.321		-6.3		-0.0089		157.62		-127.9						
22.656		408.3		-0.313		-8.8		-0.0058		157.78		-127.7						
22.754		416.5		-0.277		-3.7		-0.0043		158.58		-115.4						
22.852		426.1		-0.273		-5.0		-0.0058		158.21		-116.3						
22.949		437.0		-0.250		-5.0		-0.0058		158.21		-109.2						
23.047		447.0		-0.231		-5.0		-0.0043		158.44		-103.2						
23.145		457.8		-0.210		-6.3		-0.0058		158.07		-96.1						
23.242		467.8		-0.197		-5.0		-0.0027		158.66		-92.3						
23.340		478.7		-0.183		-3.7		-0.0043		158.58		-87.4						
23.438		487.8		-0.153		-5.0		-0.0043		158.44		-74.8						
23.535		499.6		-0.141		-8.8		-0.0043		158.01		-70.3						
23.633		508.7		-0.126		0.1		-0.0058		158.79		-64.1						
23.730		515.2		-0.103		-1.1		-0.0058		158.65		-53.0						
23.828		527.8		-0.069		-2.4		-0.0058		158.50		-36.6						
23.926		534.3		-0.063		0.1		-0.0043		159.02		-33.7						
24.023		539.6		-0.031		-1.1		-0.0043		158.87		-17.0						
24.121		545.2		0.000		0.1		-0.0012		159.47		0.0						
24.219		550.9		0.019		-1.1		-0.0027		159.10		10.4						
24.316		556.5		0.046		-2.4		-0.0012		159.18		25.7						
24.414		558.3		0.063		-1.1		0.0003		159.55		35.2						
24.512		553.5		0.103		1.4		-0.0012		159.61		56.9						
24.609		556.5		0.111		-2.4		-0.0043		158.73		61.9						
24.707		553.9		0.132		-5.0		0.0003		159.11		73.3						
24.805		556.1		0.157		1.4		-0.0043		159.16		87.6						
24.902		555.7		0.168		0.1		0.0019		159.92		93.3						
25.000		554.8		0.199		-1.1		-0.0012		159.32		110.7						
25.098		554.3		0.229		0.1		0.0019		159.92		126.9						
25.195		550.9		0.244		-3.7		0.0003		159.26		134.2						
25.293		548.7		0.265		-2.4		0.0034		159.85		145.2						
25.391		546.5		0.281		1.4		0.0034		160.29		153.8						
25.488		542.6		0.302		-1.1		0.0019		159.77		164.1						
25.586		539.6		0.325		-3.7		0.0034		159.71		175.6						
25.684		531.3		0.346		-1.1		0.0034		160.00		184.1						
25.781		527.0		0.359		1.4		0.0019		160.06		189.2						
25.879		518.3		0.370		-3.7		0.0019		159.48		191.5						
25.977		513.5		0.386		-1.1		0.0019		159.77		198.4						
26.074		502.2		0.386		-1.1		0.0019		159.77		194.0						
26.172		494.3		0.416		0.1		0.0003		159.69		205.5						
26.270		488.7		0.443		0.1		0.0003		159.69		216.5						
26.367		477.4		0.449		-1.1		0.0019		159.77		214.5						
26.465		469.1		0.460		0.1		0.0049		160.37		215.7						
26.563		461.3		0.477		1.4		0.0003		159.84		219.9						
26.660		451.3		0.491		-2.4		0.0003		159.40		221.7						
26.758		442.2		0.498		-3.7		0.0034		159.71		220.0						
26.855		433.5		0.493		2.7		-0.0058		159.08		213.9						
26.953		421.7		0.529		0.1		0.0003		159.69		223.2						
27.051		415.2		0.521		-1.1		0.0034		160.00		216.2						
27.148		400.4		0.535		0.1		0.0019		159.92		214.4						
27.246		393.5		0.550		-2.4		0.0003		159.40		216.5						
27.344		383.0		0.573		-1.1		0.0034		160.00		219.6						
27.441		376.5		0.571		2.7		0.0065		160.89		215.0						
27.539		366.5		0.588		0.1		0.0034		160.14		215.5						
27.637		356.5		0.601		-2.4		0.0019		159.63		214.1						
27.734		345.7		0.622		0.1		0.0034		160.14		214.8						
27.832		334.3		0.634		0.1		0.0034		160.14		212.0						
27.930		321.7		0.638		-1.1		0.0019		159.77		205.4						
28.027		308.3		0.643		-1.1		0.0019		159.77		198.1						
28.125		297.4		0.664		0.1		0.0034		160.14		197.3						
28.223		282.2		0.674		0.1		0.0019		159.92		190.2						
28.320		270.0		0.691		-1.1		0.0003		159.55		186.5						
28.418		252.6		0.695		-2.4		0.0019		159.63		175.6						
28.516		235.2		0.703		0.1		0.0049		160.37		165.5						
28.613		220.9		0.714		0.1		0.0019		159.92		157.7						
28.711		203.0		0.708		0.1		0.0003		159.69		143.7						
28.809		190.0		0.699		-3.7		0.0019		159.48		132.9						
28.906		169.6		0.706		1.4		-0.0012		159.61		119.6						
29.004		153.5		0.699		6.5		0.0003		160.42		107.3						
29.102		137.4		0.693		-1.1		0.0034		160.00		95.2						
29.199		125.2		0.701		0.1		0.0019		159.92		87.8						
29.297		108.7		0.695		-2.4		0.0003		159.40		75.5						
29.395		92.2		0.697		-2.4		0.0003		159.40		64.3						
29.492		76.5		0.680		1.4		0.0034		160.29		52.1						
29.590		60.9		0.682		0.1		0.0019		159.92		41.5						
29.688		37.8		0.680		-3.7		0.0003		159.26		25.7						
29.785		19.1		0.668		0.1		0.0003		159.69		12.8						
29.883		1.3		0.659		-1.1		0.0034		160.00		0.9						
29.980		-16.5		0.638		-2.4		0.0003		159.40		-10.5						
30.078		-37.0		0.634		-1.1		0.0019		159.77		-23.4						
30.176		-55.2		0.634		-2.4		0.0003		159.40		-35.0						
30.273		-77.8		0.630		-1.1		0.0003		159.55		-49.0						
30.371		-97.0		0.619		-1.1		-0.0012		159.32		-60.1						
30.469		-116.1		0.596		-3.7		0.0003		159.26		-69.2						
30.566		-132.6		0.592		-1.1		0.0034		160.00		-78.5						
30.664		-151.7		0.575		0.1		0.0003		159.69		-87.3						
30.762		-165.7		0.586		-2.4		-0.0012		159.18		-97.0						
30.859		-182.6		0.567		-5.0		0.0003		159.11		-103.5						
30.957		-194.3		0.542		0.1		0.0065		160.60		-105.3						
31.055		-209.6		0.542		1.4		0.0019		160.06		-113.5						
31.152		-226.5		0.525		-1.1		0.0019		159.77		-118.9						
31.250		-240.4		0.514		-1.1		0.0003		159.55		-123.7						
31.348		-255.7		0.502		-3.7		0.0003		159.26		-128.3						
31.445		-272.2		0.489		-1.1		0.0034		160.00		-133.2						
31.543		-282.6		0.468		1.4		0.0034		160.29		-132.3						
31.641		-293.5		0.466		0.1		0.0003		159.69		-136.8						
31.738		-307.4		0.447		-2.4		0.0003		159.40		-137.5						
31.836		-318.7		0.441		-2.4		0.0003		159.40		-140.5						
31.934		-331.7		0.435		0.1		0.0019		159.92		-144.2						
32.031		-342.2		0.418		-1.1		0.0019		159.77		-143.0						
32.129		-353.9		0.399		-1.1		0.0019		159.77		-141.2						
32.227		-363.5		0.372		0.1		0.0019		159.92		-135.1						
32.324		-373.9		0.359		-1.1		0.0019		159.77		-134.3						
32.422		-385.7		0.359		-2.4		-0.0012		159.18		-138.5						
32.520		-397.0		0.330		-3.7		0.0003		159.26		-130.9						
32.617		-404.8		0.304		-1.1		0.0049		160.22		-123.2						
32.715		-410.4		0.283		1.4		0.0019		160.06		-116.3						
32.813		-423.0		0.275		-1.1		-0.0012		159.32		-116.4						
32.910		-434.8		0.260		-3.7		0.0003		159.26		-113.2						
33.008		-446.5		0.250		0.1		0.0019		159.92		-111.6						
33.105		-455.2		0.237		-1.1		0.0019		159.77		-108.0						
33.203		-466.5		0.197		-1.1		0.0019		159.77		-92.1						
33.301		-476.1		0.181		-1.1		-0.0012		159.32		-86.0						
33.398		-487.8		0.168		-3.7		-0.0012		159.03		-81.9						
33.496		-497.0		0.147		-2.4		0.0019		159.63		-73.0						
33.594		-503.5		0.122		0.1		0.0049		160.37		-61.3						
33.691		-514.3		0.101		4.0		0.0003		160.13		-51.8						
33.789		-522.6		0.078		2.7		0.0080		161.11		-40.6						
33.887		-531.7		0.052		4.0		0.0019		160.35		-27.9						
33.984		-543.0		0.034		5.2		0.0019		160.50		-18.2						
34.082		-542.6		0.010		2.7		0.0003		159.98		-5.7						
34.180		-552.2		-0.010		2.7		0.0019		160.21		5.8						
34.277		-559.6		-0.046		4.0		-0.0012		159.90		25.8						
34.375		-556.1		-0.065		4.0		-0.0027		159.68		36.2						
34.473		-557.4		-0.080		2.7		-0.0027		159.53		44.5						
34.570		-556.5		-0.120		2.7		-0.0027		159.53		66.6						
34.668		-557.8		-0.134		4.0		0.0019		160.35		75.0						
34.766		-556.5		-0.160		6.5		-0.0012		160.19		88.8						
34.863		-555.7		-0.172		2.7		-0.0043		159.30		95.7						
34.961		-552.6		-0.195		0.1		-0.0012		159.47		107.9						
35.059		-557.8		-0.210		5.2		0.0065		161.18		117.1						
35.156		-554.3		-0.246		1.4		0.0003		159.84		136.2						
35.254		-550.0		-0.265		4.0		0.0003		160.13		145.5						
35.352		-548.7		-0.277		4.0		0.0003		160.13		152.1						
35.449		-545.7		-0.304		4.0		-0.0012		159.90		166.1						
35.547		-541.3		-0.319		2.7		0.0003		159.98		172.8						
35.645		-536.5		-0.330		6.5		0.0034		160.87		176.9						
35.742		-530.0		-0.361		6.5		-0.0012		160.19		191.4						
35.840		-520.0		-0.382		5.2		-0.0119		158.46		198.7						
35.938		-518.7		-0.380		4.0		0.0019		160.35		197.1						
36.035		-507.0		-0.414		5.2		0.0003		160.27		209.7						
36.133		-499.1		-0.422		5.2		-0.0058		159.37		210.7						
36.230		-490.0		-0.430		4.0		0.0003		160.13		210.9						
36.328		-484.8		-0.449		4.0		0.0003		160.13		217.8						
36.426		-475.7		-0.454		4.0		0.0003		160.13		215.7						
36.523		-465.7		-0.468		5.2		-0.0012		160.05		218.0						
36.621		-456.5		-0.485		2.7		0.0003		159.98		221.4						
36.719		-449.1		-0.485		4.0		0.0019		160.35		217.8						
36.816		-437.8		-0.508		7.8		0.0034		161.02		222.5						
36.914		-427.0		-0.506		4.0		-0.0012		159.90		216.1						
37.012		-419.1		-0.535		0.1		0.0003		159.69		224.4						
37.109		-406.5		-0.546		5.2		0.0065		161.18		221.9						
37.207		-400.0		-0.546		4.0		0.0003		160.13		218.4						
37.305		-388.7		-0.552		4.0		0.0034		160.58		214.6						
37.402		-377.4		-0.571		4.0		0.0003		160.13		215.5						
37.500		-370.4		-0.594		4.0		-0.0012		159.90		220.1						
37.598		-362.2		-0.592		2.7		0.0019		160.21		214.5						
37.695		-347.8		-0.613		6.5		0.0049		161.10		213.3						
37.793		-338.3		-0.619		7.8		0.0003		160.56		209.5						
37.891		-327.0		-0.632		5.2		-0.0073		159.14		206.6						
37.988		-316.1		-0.651		5.2		0.0019		160.50		205.7						
38.086		-303.5		-0.657		5.2		0.0003		160.27		199.5						
38.184		-287.4		-0.664		5.2		-0.0012		160.05		190.7						
38.281		-274.8		-0.682		4.0		0.0019		160.35		187.5						
38.379		-255.2		-0.685		5.2		0.0003		160.27		174.7						
38.477		-243.0		-0.687		5.2		0.0003		160.27		166.9						
38.574		-225.2		-0.693		2.7		-0.0012		159.76		156.1						
38.672		-211.3		-0.691		1.4		0.0003		159.84		146.0						
38.770		-194.8		-0.708		2.7		0.0019		160.21		137.8						
38.867		-174.3		-0.703		4.0		0.0019		160.35		122.6						
38.965		-158.7		-0.703		2.7		-0.0012		159.76		111.6						
39.063		-144.3		-0.695		0.1		0.0003		159.69		100.3						
39.160		-130.9		-0.708		4.0		0.0034		160.58		92.6						
39.258		-118.7		-0.689		4.0		-0.0012		159.90		81.7						
39.355		-100.9		-0.693		1.4		0.0019		160.06		69.9						
39.453		-82.6		-0.674		4.0		-0.0012		159.90		55.7						
39.551		-65.7		-0.678		1.4		-0.0027		159.39		44.5						
39.648		-49.1		-0.674		1.4		-0.0012		159.61		33.1						
39.746		-27.4		-0.659		4.0		0.0034		160.58		18.1						
39.844		-5.7		-0.655		6.5		0.0003		160.42		3.7						
39.941		9.6		-0.649		1.4		0.0003		159.84		-6.2						
40.039		28.7		-0.638		4.0		0.0019		160.35		-18.3						
40.137		48.3		-0.632		1.4		-0.0012		159.61		-30.5						
40.234		65.7		-0.624		1.4		-0.0012		159.61		-40.9						
40.332		90.0		-0.617		4.0		0.0019		160.35		-55.6						
40.430		106.1		-0.613		2.7		0.0019		160.21		-65.0						
40.527		126.5		-0.584		2.7		-0.0012		159.76		-73.9						
40.625		144.8		-0.588		2.7		0.0003		159.98		-85.1						
40.723		159.1		-0.580		1.4		-0.0012		159.61		-92.2						
40.820		177.4		-0.546		2.7		0.0019		160.21		-96.8						
40.918		188.7		-0.559		5.2		0.0003		160.27		-105.4						
41.016		204.8		-0.533		2.7		-0.0027		159.53		-109.2						
41.113		220.0		-0.533		0.1		-0.0012		159.47		-117.3						
41.211		235.2		-0.527		2.7		0.0003		159.98		-124.0						
41.309		251.3		-0.517		5.2		-0.0027		159.82		-129.8						
41.406		262.6		-0.504		2.7		0.0003		159.98		-132.3						
41.504		277.0		-0.487		2.7		0.0003		159.98		-134.9						
41.602		288.7		-0.483		2.7		-0.0027		159.53		-139.4						
41.699		298.7		-0.458		1.4		0.0003		159.84		-136.7						
41.797		310.9		-0.454		5.2		0.0034		160.73		-141.0						
41.895		324.8		-0.426		6.5		0.0003		160.42		-138.4						
41.992		333.9		-0.426		2.7		-0.0012		159.76		-142.3						
42.090		349.1		-0.395		2.7		0.0019		160.21		-137.8						
42.188		356.5		-0.376		2.7		-0.0012		159.76		-134.0						
42.285		370.0		-0.376		2.7		0.0003		159.98		-139.1						
42.383		381.7		-0.351		1.4		-0.0012		159.61		-133.9						
42.480		390.9		-0.351		2.7		0.0019		160.21		-137.1						
42.578		399.1		-0.321		4.0		-0.0012		159.90		-128.2						
42.676		409.6		-0.304		2.7		-0.0012		159.76		-124.7						
42.773		423.9		-0.298		1.4		-0.0027		159.39		-126.4						
42.871		427.0		-0.281		2.7		0.0019		160.21		-120.1						
42.969		441.3		-0.248		4.0		0.0003		160.13		-109.3						
43.066		448.7		-0.227		1.4		-0.0043		159.16		-101.8						
43.164		461.7		-0.210		0.1		-0.0012		159.47		-97.0						
43.262		472.6		-0.191		2.7		-0.0012		159.76		-90.3						
43.359		483.0		-0.174		6.5		-0.0012		160.19		-84.2						
43.457		491.3		-0.157		1.4		0.0003		159.84		-77.4						
43.555		499.6		-0.145		4.0		0.0003		160.13		-72.4						
43.652		507.4		-0.118		5.2		-0.0012		160.05		-59.7						
43.750		514.8		-0.101		4.0		0.0003		160.13		-51.9						
43.848		523.9		-0.076		7.8		0.0019		160.79		-39.6						
43.945		537.0		-0.055		9.1		-0.0012		160.48		-29.3						
44.043		542.6		-0.029		6.5		-0.0012		160.19		-16.0						
44.141		547.8		0.008		7.8		0.0049		161.24		4.6						
44.238		553.0		0.017		7.8		0.0049		161.24		9.3						
44.336		553.5		0.046		6.5		0.0034		160.87		25.6						
44.434		555.7		0.067		5.2		0.0019		160.50		37.3						
44.531		556.5		0.094		6.5		0.0034		160.87		52.6						
44.629		557.0		0.118		6.5		0.0034		160.87		65.5						
44.727		561.3		0.145		7.8		0.0019		160.79		81.3						
44.824		557.4		0.157		5.2		0.0003		160.27		87.8						
44.922		555.7		0.181		5.2		0.0034		160.73		100.3						
45.020		555.7		0.195		9.1		0.0034		161.16		108.5						
45.117		555.7		0.229		5.2		-0.0012		160.05		127.2						
45.215		548.3		0.252		4.0		0.0003		160.13		138.1						
45.313		550.4		0.231		5.2		0.0019		160.50		127.1						
45.410		543.0		0.288		12.9		0.0003		161.14		156.2						
45.508		538.3		0.315		5.2		0.0003		160.27		169.5						
45.605		534.8		0.319		7.8		0.0019		160.79		170.7						
45.703		530.9		0.351		6.5		0.0003		160.42		186.2						
45.801		527.8		0.363		5.2		0.0003		160.27		191.7						
45.898		517.8		0.380		7.8		0.0034		161.02		196.8						
45.996		508.3		0.393		10.3		0.0019		161.08		199.6						
46.094		502.6		0.397		5.2		0.0003		160.27		199.5						
46.191		495.2		0.414		7.8		0.0034		161.02		204.8						
46.289		485.7		0.426		7.8		0.0034		161.02		207.0						
46.387		472.6		0.445		7.8		0.0034		161.02		210.4						
46.484		467.0		0.458		5.2		0.0003		160.27		213.7						
46.582		457.8		0.472		6.5		0.0019		160.64		216.3						
46.680		447.0		0.485		7.8		0.0019		160.79		216.8						
46.777		440.4		0.485		6.5		0.0003		160.42		213.6						
46.875		430.9		0.498		5.2		0.0019		160.50		214.4						
46.973		423.5		0.508		6.5		0.0034		160.87		215.2						
47.070		408.7		0.514		9.1		0.0019		160.94		210.2						
47.168		403.0		0.525		7.8		-0.0012		160.34		211.6						
47.266		391.7		0.550		4.0		0.0003		160.13		215.5						
47.363		380.4		0.561		6.5		0.0019		160.64		213.3						
47.461		372.2		0.582		12.9		0.0003		161.14		216.5						
47.559		362.6		0.596		6.5		0.0019		160.64		216.2						
47.656		353.0		0.598		6.5		0.0034		160.87		211.3						
47.754		342.6		0.615		6.5		-0.0012		160.19		210.8						
47.852		329.6		0.615		5.2		0.0019		160.50		202.8						
47.949		320.9		0.628		7.8		0.0049		161.24		201.4						
48.047		304.8		0.645		9.1		0.0019		160.94		196.5						
48.145		291.7		0.659		6.5		-0.0012		160.19		192.3						
48.242		278.3		0.664		6.5		0.0019		160.64		184.6						
48.340		261.7		0.678		7.8		0.0034		161.02		177.5						
48.438		247.0		0.680		7.8		0.0019		160.79		168.0						
48.535		231.7		0.691		7.8		0.0003		160.56		160.1						
48.633		218.7		0.689		6.5		0.0034		160.87		150.6						
48.730		199.1		0.699		0.1		0.0034		160.14		139.2						
48.828		184.3		0.695		0.1		0.0003		159.69		128.1						
48.926		164.3		0.691		-2.4		0.0003		159.40		113.5						
49.023		146.1		0.699		0.1		0.0034		160.14		102.1						
49.121		133.9		0.687		1.4		0.0019		160.06		91.9						
49.219		117.0		0.689		-1.1		-0.0012		159.32		80.5						
49.316		104.8		0.687		-3.7		-0.0012		159.03		71.9						
49.414		92.2		0.678		-2.4		0.0019		159.63		62.5						
49.512		72.2		0.687		2.7		0.0003		159.98		49.6						
49.609		53.9		0.682		-2.4		0.0003		159.40		36.8						
49.707		37.4		0.664		0.1		0.0019		159.92		24.8						
49.805		17.4		0.661		-2.4		0.0003		159.40		11.5						
49.902		-4.3		0.657		-2.4		0.0019		159.63		-2.9						
