Oscilloscope Trace Export		
Festo Didactic LVDAC-EMS 3.21		
		
		
		Ch1		Ch2		Ch3		Ch4		Ch5		Ch6		Ch7		Ch8		
Time 		E1		I1		AI8		AI7		Pm		P1		Off		Off		
(ms)		(V)		(A)		(r/min)		(NÂ·m)		(W)		(W)		()		()		
0.000		5.2		-0.857		-2.9		-0.0007		79.1		-4.5						
0.098		15.2		-0.852		-2.9		0.0023		79.4		-13.0						
0.195		26.1		-0.840		1.0		0.0008		79.5		-21.9						
0.293		35.7		-0.817		-0.3		0.0023		79.6		-29.1						
0.391		43.9		-0.810		-5.4		0.0008		79.0		-35.6						
0.488		54.8		-0.777		-1.6		-0.0007		79.2		-42.6						
0.586		62.6		-0.775		-1.6		0.0008		79.3		-48.5						
0.684		76.5		-0.760		-2.9		-0.0007		79.1		-58.2						
0.781		83.5		-0.733		-2.9		0.0008		79.2		-61.2						
0.879		93.5		-0.716		-1.6		-0.0007		79.2		-66.9						
0.977		101.3		-0.697		-2.9		-0.0007		79.1		-70.6						
1.074		109.1		-0.687		-2.9		0.0008		79.2		-74.9						
1.172		115.7		-0.666		-0.3		0.0008		79.4		-77.0						
1.270		122.6		-0.636		-0.3		-0.0023		79.1		-78.0						
1.367		134.3		-0.622		-2.9		-0.0023		78.9		-83.5						
1.465		140.9		-0.605		-5.4		0.0008		79.0		-85.2						
1.563		149.1		-0.573		-0.3		0.0008		79.4		-85.5						
1.660		151.7		-0.563		-0.3		0.0008		79.4		-85.4						
1.758		160.0		-0.529		-1.6		-0.0007		79.2		-84.7						
1.855		166.5		-0.512		-1.6		0.0008		79.3		-85.3						
1.953		173.5		-0.489		-1.6		-0.0023		79.0		-84.9						
2.051		174.3		-0.460		-4.1		-0.0023		78.8		-80.2						
2.148		183.0		-0.437		-2.9		-0.0007		79.1		-79.9						
2.246		187.8		-0.414		1.0		0.0008		79.5		-77.7						
2.344		192.2		-0.384		-1.6		0.0008		79.3		-73.8						
2.441		200.0		-0.363		-5.4		-0.0007		78.9		-72.7						
2.539		205.7		-0.336		-1.6		-0.0007		79.2		-69.1						
2.637		208.7		-0.313		-4.1		-0.0007		79.0		-65.3						
2.734		214.8		-0.281		-1.6		-0.0007		79.2		-60.4						
2.832		220.0		-0.254		-0.3		0.0008		79.4		-55.9						
2.930		227.0		-0.218		-2.9		-0.0023		78.9		-49.6						
3.027		230.9		-0.191		-1.6		-0.0023		79.0		-44.1						
3.125		235.2		-0.155		-2.9		0.0008		79.2		-36.5						
3.223		244.3		-0.124		-0.3		0.0023		79.6		-30.3						
3.320		248.3		-0.101		-0.3		-0.0007		79.3		-25.0						
3.418		253.0		-0.065		-4.1		-0.0053		78.5		-16.5						
3.516		259.1		-0.034		-4.1		0.0008		79.1		-8.7						
3.613		263.9		-0.015		1.0		0.0039		79.8		-3.9						
3.711		270.0		0.027		-4.1		0.0008		79.1		7.4						
3.809		275.2		0.069		-1.6		0.0039		79.6		19.1						
3.906		276.5		0.101		1.0		0.0023		79.7		27.9						
4.004		279.1		0.132		-0.3		0.0023		79.6		36.9						
4.102		284.8		0.143		-4.1		0.0008		79.1		40.7						
4.199		288.7		0.199		-2.9		0.0039		79.5		57.6						
4.297		289.1		0.208		2.2		0.0054		80.1		60.1						
4.395		289.6		0.246		1.0		0.0039		79.8		71.1						
4.492		295.2		0.269		-2.9		0.0023		79.4		79.3						
4.590		295.2		0.294		1.0		0.0039		79.8		86.8						
4.688		294.3		0.344		-0.3		0.0008		79.4		101.4						
4.785		291.3		0.370		1.0		0.0039		79.8		107.7						
4.883		290.4		0.388		1.0		0.0039		79.8		112.8						
4.980		293.5		0.409		2.2		0.0039		80.0		120.2						
5.078		292.2		0.435		2.2		0.0023		79.8		127.0						
5.176		290.4		0.460		-0.3		0.0023		79.6		133.6						
5.273		290.9		0.489		2.2		0.0054		80.1		142.3						
5.371		287.8		0.508		3.5		0.0023		79.9		146.3						
5.469		285.2		0.538		-1.6		-0.0007		79.2		153.3						
5.566		284.8		0.559		-2.9		0.0039		79.5		159.1						
5.664		278.7		0.588		4.8		0.0085		80.6		163.9						
5.762		277.4		0.609		2.2		0.0039		80.0		168.9						
5.859		275.2		0.624		-0.3		0.0023		79.6		171.6						
5.957		272.2		0.653		2.2		0.0054		80.1		177.7						
6.055		267.8		0.668		2.2		0.0023		79.8		178.8						
6.152		266.1		0.680		1.0		0.0023		79.7		181.0						
6.250		257.4		0.703		1.0		0.0023		79.7		181.1						
6.348		251.3		0.737		3.5		0.0069		80.4		185.2						
6.445		247.0		0.739		2.2		0.0023		79.8		182.5						
6.543		244.8		0.762		1.0		0.0039		79.8		186.6						
6.641		237.8		0.787		2.2		0.0023		79.8		187.3						
6.738		236.5		0.802		1.0		0.0039		79.8		189.7						
6.836		230.4		0.815		1.0		0.0023		79.7		187.7						
6.934		223.9		0.821		1.0		0.0039		79.8		183.8						
7.031		222.6		0.852		2.2		0.0023		79.8		189.8						
7.129		214.3		0.855		-0.3		0.0008		79.4		183.2						
7.227		210.9		0.882		1.0		0.0023		79.7		186.0						
7.324		204.3		0.878		2.2		0.0054		80.1		179.4						
7.422		200.4		0.894		3.5		0.0039		80.1		179.3						
7.520		196.5		0.913		-0.3		0.0008		79.4		179.5						
7.617		190.4		0.922		-1.6		0.0054		79.8		175.5						
7.715		184.3		0.928		4.8		0.0100		80.8		171.1						
7.813		177.8		0.947		-4.1		0.0023		79.3		168.4						
7.910		174.3		0.953		1.0		0.0039		79.8		166.2						
8.008		165.2		0.966		2.2		0.0054		80.1		159.6						
8.105		158.3		0.970		2.2		0.0039		80.0		153.5						
8.203		151.3		0.972		1.0		0.0023		79.7		147.1						
8.301		143.0		0.983		-0.3		0.0023		79.6		140.6						
8.398		137.4		0.978		2.2		0.0054		80.1		134.4						
8.496		129.1		0.987		3.5		0.0023		79.9		127.4						
8.594		120.0		0.981		1.0		0.0023		79.7		117.7						
8.691		113.0		0.991		1.0		0.0039		79.8		112.0						
8.789		103.0		0.981		-0.3		0.0008		79.4		101.0						
8.887		91.7		0.985		1.0		0.0008		79.5		90.3						
8.984		83.9		0.983		1.0		0.0039		79.8		82.5						
9.082		73.9		0.976		2.2		0.0023		79.8		72.2						
9.180		67.0		0.966		1.0		-0.0007		79.4		64.7						
9.277		61.7		0.957		-5.4		0.0023		79.2		59.1						
9.375		53.5		0.957		-4.1		0.0039		79.4		51.2						
9.473		47.0		0.943		-2.9		0.0023		79.4		44.3						
9.570		35.7		0.934		-5.4		-0.0007		78.9		33.3						
9.668		22.2		0.918		-8.0		0.0008		78.8		20.3						
9.766		16.5		0.907		-1.6		0.0085		80.1		15.0						
9.863		5.7		0.903		3.5		0.0023		79.9		5.1						
9.961		-5.2		0.880		-5.4		0.0008		79.0		-4.6						
10.059		-15.2		0.859		-2.9		0.0039		79.5		-13.1						
10.156		-24.8		0.842		-2.9		0.0023		79.4		-20.9						
10.254		-35.2		0.821		-5.4		0.0008		79.0		-28.9						
10.352		-46.1		0.808		-5.4		0.0039		79.3		-37.3						
10.449		-55.2		0.783		-2.9		0.0039		79.5		-43.2						
10.547		-63.5		0.773		-2.9		0.0023		79.4		-49.0						
10.645		-75.7		0.750		-2.9		0.0039		79.5		-56.7						
10.742		-82.6		0.741		-2.9		0.0023		79.4		-61.2						
10.840		-90.4		0.710		-5.4		0.0008		79.0		-64.2						
10.938		-103.0		0.699		-5.4		0.0023		79.2		-72.0						
11.035		-107.0		0.685		-5.4		0.0023		79.2		-73.2						
11.133		-117.4		0.661		-4.1		0.0023		79.3		-77.6						
11.230		-122.6		0.624		-4.1		-0.0007		79.0		-76.5						
11.328		-127.8		0.628		-5.4		0.0023		79.2		-80.3						
11.426		-138.3		0.598		-2.9		0.0039		79.5		-82.7						
11.523		-146.1		0.580		-1.6		0.0039		79.6		-84.7						
11.621		-154.8		0.556		-4.1		0.0008		79.1		-86.1						
11.719		-160.4		0.533		-8.0		0.0039		79.1		-85.6						
11.816		-163.0		0.514		-2.9		0.0100		80.1		-83.9						
11.914		-171.3		0.493		-6.7		0.0008		78.9		-84.5						
12.012		-178.7		0.468		-5.4		0.0023		79.2		-83.7						
12.109		-181.3		0.441		-4.1		0.0039		79.4		-79.9						
12.207		-187.8		0.403		-1.6		0.0023		79.5		-75.7						
12.305		-193.9		0.388		-5.4		0.0008		79.0		-75.3						
12.402		-199.6		0.361		-4.1		0.0039		79.4		-72.1						
12.500		-204.8		0.334		-1.6		0.0069		79.9		-68.4						
12.598		-210.0		0.296		-4.1		0.0023		79.3		-62.2						
12.695		-219.6		0.275		-2.9		0.0115		80.3		-60.4						
12.793		-221.7		0.244		-4.1		0.0023		79.3		-54.0						
12.891		-227.4		0.239		-5.4		0.0039		79.3		-54.4						
12.988		-234.3		0.193		-4.1		0.0023		79.3		-45.3						
13.086		-237.0		0.168		-4.1		0.0054		79.6		-39.8						
13.184		-243.0		0.132		-4.1		0.0039		79.4		-32.2						
13.281		-247.0		0.078		-4.1		0.0008		79.1		-19.2						
13.379		-253.9		0.063		-6.7		0.0039		79.2		-16.0						
13.477		-257.4		0.034		-4.1		0.0054		79.6		-8.6						
13.574		-265.2		0.002		-1.6		0.0054		79.8		-0.6						
13.672		-268.3		-0.027		-5.4		-0.0038		78.6		7.3						
13.770		-273.9		-0.063		-6.7		-0.0007		78.8		17.3						
13.867		-278.7		-0.105		-2.9		0.0069		79.8		29.3						
13.965		-283.9		-0.124		-5.4		-0.0023		78.7		35.2						
14.063		-285.2		-0.168		-5.4		-0.0007		78.9		47.9						
14.160		-290.9		-0.183		-4.1		0.0008		79.1		53.1						
14.258		-293.0		-0.223		-0.3		-0.0007		79.3		65.2						
14.355		-294.8		-0.248		-2.9		-0.0023		78.9		73.0						
14.453		-292.2		-0.277		-2.9		-0.0007		79.1		81.0						
14.551		-293.5		-0.292		-1.6		0.0039		79.6		85.7						
14.648		-293.0		-0.342		-0.3		-0.0007		79.3		100.3						
14.746		-292.2		-0.365		-0.3		-0.0099		78.4		106.7						
14.844		-293.0		-0.393		-1.6		-0.0007		79.2		115.1						
14.941		-290.9		-0.405		-1.6		-0.0007		79.2		117.9						
15.039		-291.7		-0.439		-2.9		-0.0007		79.1		128.0						
15.137		-296.5		-0.464		-1.6		0.0008		79.3		137.6						
15.234		-290.9		-0.489		-1.6		0.0008		79.3		142.3						
15.332		-290.9		-0.521		-1.6		-0.0023		79.0		151.5						
15.430		-288.7		-0.552		-2.9		0.0008		79.2		159.4						
15.527		-283.0		-0.569		-1.6		0.0023		79.5		161.1						
15.625		-283.0		-0.592		2.2		0.0023		79.8		167.6						
15.723		-279.6		-0.609		-1.6		-0.0038		78.9		170.2						
15.820		-272.6		-0.634		-5.4		-0.0023		78.7		172.9						
15.918		-270.9		-0.659		-0.3		0.0085		80.2		178.6						
16.016		-271.7		-0.676		1.0		-0.0007		79.4		183.7						
16.113		-262.2		-0.699		-1.6		0.0008		79.3		183.3						
16.211		-258.7		-0.718		-0.3		0.0023		79.6		185.8						
16.309		-257.8		-0.741		-0.3		0.0008		79.4		191.1						
16.406		-249.6		-0.762		-1.6		-0.0007		79.2		190.2						
16.504		-247.4		-0.775		-2.9		-0.0007		79.1		191.7						
16.602		-243.5		-0.783		2.2		0.0054		80.1		190.7						
16.699		-239.1		-0.804		1.0		-0.0007		79.4		192.3						
16.797		-230.0		-0.813		-0.3		-0.0053		78.8		186.9						
16.895		-225.7		-0.829		-0.3		0.0008		79.4		187.2						
16.992		-220.9		-0.846		-0.3		-0.0007		79.3		186.9						
17.090		-213.0		-0.873		-1.6		0.0008		79.3		186.1						
17.188		-210.4		-0.884		-1.6		0.0023		79.5		186.0						
17.285		-206.1		-0.892		-0.3		0.0023		79.6		183.9						
17.383		-201.3		-0.894		-0.3		-0.0007		79.3		180.1						
17.480		-197.4		-0.918		-2.9		0.0008		79.2		181.1						
17.578		-190.4		-0.926		-1.6		0.0039		79.6		176.3						
17.676		-185.7		-0.943		2.2		0.0008		79.7		175.0						
17.773		-178.3		-0.945		-1.6		-0.0023		79.0		168.4						
17.871		-171.7		-0.945		-4.1		0.0023		79.3		162.3						
17.969		-166.1		-0.951		-1.6		0.0069		79.9		158.0						
18.066		-158.3		-0.972		1.0		0.0008		79.5		153.9						
18.164		-153.0		-0.985		-1.6		0.0023		79.5		150.7						
18.262		-146.1		-0.987		-0.3		0.0023		79.6		144.2						
18.359		-138.7		-0.970		-0.3		0.0023		79.6		134.5						
18.457		-129.1		-0.978		-1.6		0.0008		79.3		126.4						
18.555		-121.7		-0.989		-1.6		0.0023		79.5		120.4						
18.652		-114.8		-0.991		-0.3		0.0039		79.7		113.8						
18.750		-106.5		-0.985		1.0		0.0008		79.5		104.9						
18.848		-95.7		-0.991		-0.3		-0.0007		79.3		94.8						
18.945		-84.8		-0.983		-1.6		-0.0007		79.2		83.3						
19.043		-79.6		-0.962		-0.3		0.0008		79.4		76.5						
19.141		-70.4		-0.968		-1.6		-0.0007		79.2		68.2						
19.238		-64.8		-0.968		-2.9		0.0008		79.2		62.7						
19.336		-55.7		-0.945		-1.6		-0.0007		79.2		52.6						
19.434		-46.1		-0.947		-0.3		-0.0007		79.3		43.6						
19.531		-38.7		-0.926		-2.9		-0.0007		79.1		35.8						
19.629		-26.5		-0.924		-1.6		0.0008		79.3		24.5						
19.727		-17.0		-0.911		-0.3		0.0008		79.4		15.5						
19.824		-7.4		-0.876		-2.9		-0.0023		78.9		6.5						
19.922		1.7		-0.882		-4.1		0.0008		79.1		-1.5						
20.020		13.0		-0.855		-1.6		0.0023		79.5		-11.1						
20.117		23.9		-0.831		2.2		-0.0007		79.5		-19.9						
20.215		32.2		-0.829		-1.6		-0.0007		79.2		-26.7						
20.313		47.0		-0.813		-0.3		-0.0007		79.3		-38.2						
20.410		53.0		-0.790		-0.3		0.0008		79.4		-41.9						
20.508		63.5		-0.783		-2.9		-0.0038		78.8		-49.7						
20.605		73.5		-0.760		-4.1		-0.0023		78.8		-55.9						
20.703		81.3		-0.743		-1.6		-0.0007		79.2		-60.4						
20.801		90.9		-0.716		1.0		-0.0023		79.2		-65.1						
20.898		98.7		-0.699		-2.9		-0.0007		79.1		-69.0						
20.996		107.8		-0.682		-1.6		-0.0023		79.0		-73.6						
21.094		115.2		-0.657		-1.6		-0.0038		78.9		-75.7						
21.191		122.6		-0.649		-2.9		-0.0038		78.8		-79.6						
21.289		128.7		-0.636		-1.6		-0.0023		79.0		-81.9						
21.387		138.3		-0.598		-0.3		-0.0007		79.3		-82.7						
21.484		146.5		-0.580		-1.6		-0.0038		78.9		-84.9						
21.582		149.1		-0.552		-2.9		-0.0038		78.8		-82.4						
21.680		158.3		-0.529		-2.9		-0.0023		78.9		-83.7						
21.777		167.0		-0.521		-1.6		-0.0007		79.2		-86.9						
21.875		170.9		-0.481		-2.9		-0.0038		78.8		-82.2						
21.973		179.6		-0.470		-5.4		-0.0023		78.7		-84.5						
22.070		182.6		-0.437		-1.6		-0.0007		79.2		-79.8						
22.168		187.4		-0.424		1.0		-0.0023		79.2		-79.5						
22.266		193.0		-0.391		-1.6		-0.0007		79.2		-75.4						
22.363		197.4		-0.374		-2.9		-0.0007		79.1		-73.8						
22.461		204.3		-0.342		-1.6		-0.0023		79.0		-69.9						
22.559		208.3		-0.304		-2.9		-0.0038		78.8		-63.4						
22.656		216.5		-0.269		-2.9		-0.0007		79.1		-58.2						
22.754		219.6		-0.252		-0.3		0.0008		79.4		-55.3						
22.852		227.4		-0.227		1.0		-0.0023		79.2		-51.6						
22.949		232.6		-0.191		-1.6		-0.0038		78.9		-44.4						
23.047		234.3		-0.157		-1.6		-0.0038		78.9		-36.9						
23.145		243.9		-0.132		-2.9		-0.0023		78.9		-32.3						
23.242		247.4		-0.105		-2.9		-0.0023		78.9		-26.0						
23.340		253.0		-0.067		-2.9		-0.0023		78.9		-17.0						
23.438		257.0		-0.036		-1.6		-0.0023		79.0		-9.2						
23.535		263.0		-0.004		-2.9		0.0008		79.2		-1.1						
23.633		269.1		0.023		-2.9		0.0023		79.4		6.2						
23.730		272.6		0.061		-1.6		0.0023		79.5		16.6						
23.828		274.3		0.101		1.0		0.0039		79.8		27.7						
23.926		280.4		0.124		-2.9		-0.0007		79.1		34.7						
24.023		287.4		0.160		-5.4		0.0008		79.0		45.9						
24.121		286.5		0.195		-2.9		0.0023		79.4		56.0						
24.219		288.7		0.214		3.5		0.0008		79.8		61.8						
24.316		291.7		0.239		-0.3		0.0023		79.6		69.8						
24.414		293.9		0.273		-0.3		0.0023		79.6		80.2						
24.512		293.5		0.298		1.0		0.0023		79.7		87.5						
24.609		290.9		0.336		-0.3		-0.0007		79.3		97.7						
24.707		291.7		0.357		-1.6		0.0008		79.3		104.1						
24.805		290.9		0.374		1.0		0.0039		79.8		108.7						
24.902		292.2		0.416		2.2		0.0008		79.7		121.5						
25.000		293.5		0.437		-2.9		-0.0007		79.1		128.2						
25.098		290.4		0.475		9.9		0.0008		80.3		137.8						
25.195		290.9		0.502		1.0		0.0008		79.5		146.0						
25.293		287.8		0.519		-0.3		0.0023		79.6		149.3						
25.391		287.0		0.544		-0.3		0.0023		79.6		156.1						
25.488		282.2		0.559		-0.3		0.0023		79.6		157.6						
25.586		284.3		0.588		-0.3		0.0008		79.4		167.2						
25.684		279.6		0.617		-2.9		0.0008		79.2		172.6						
25.781		277.0		0.630		-0.3		0.0039		79.7		174.5						
25.879		273.0		0.657		2.2		0.0039		80.0		179.4						
25.977		267.0		0.659		-0.3		-0.0007		79.3		176.0						
26.074		266.5		0.699		-4.1		-0.0007		79.0		186.4						
26.172		257.0		0.710		-0.3		0.0039		79.7		182.4						
26.270		254.8		0.733		6.1		0.0008		80.0		186.7						
26.367		249.1		0.748		-0.3		-0.0007		79.3		186.2						
26.465		246.1		0.754		-0.3		0.0023		79.6		185.5						
26.563		241.3		0.783		1.0		0.0023		79.7		189.0						
26.660		235.7		0.802		1.0		0.0008		79.5		189.0						
26.758		234.3		0.825		-0.3		0.0023		79.6		193.4						
26.855		228.3		0.827		2.2		0.0039		80.0		188.8						
26.953		222.2		0.855		3.5		0.0023		79.9		189.9						
27.051		214.8		0.861		-0.3		-0.0023		79.1		184.9						
27.148		210.4		0.878		-9.3		0.0023		78.8		184.7						
27.246		203.0		0.884		-0.3		-0.0007		79.3		179.5						
27.344		200.4		0.899		-1.6		0.0008		79.3		180.1						
27.441		195.2		0.903		-0.3		0.0023		79.6		176.3						
27.539		193.5		0.915		1.0		0.0023		79.7		177.1						
27.637		185.2		0.939		1.0		0.0023		79.7		173.8						
27.734		180.0		0.936		-0.3		0.0023		79.6		168.6						
27.832		175.7		0.953		1.0		0.0039		79.8		167.4						
27.930		164.3		0.955		1.0		0.0039		79.8		157.0						
28.027		160.0		0.976		1.0		-0.0007		79.4		156.2						
28.125		153.5		0.981		-2.9		-0.0007		79.1		150.5						
28.223		144.3		0.987		-1.6		0.0023		79.5		142.5						
28.320		137.0		0.989		7.3		0.0023		80.2		135.4						
28.418		130.0		0.985		-0.3		0.0008		79.4		128.0						
28.516		120.4		0.985		-0.3		0.0023		79.6		118.6						
28.613		113.5		0.987		1.0		0.0023		79.7		112.0						
28.711		104.8		0.995		-0.3		-0.0007		79.3		104.3						
28.809		93.0		0.983		-1.6		0.0008		79.3		91.4						
28.906		85.2		0.972		-0.3		0.0008		79.4		82.8						
29.004		77.4		0.983		2.2		0.0023		79.8		76.1						
29.102		71.3		0.968		-1.6		-0.0038		78.9		69.0						
29.199		62.2		0.972		-5.4		0.0008		79.0		60.4						
29.297		55.7		0.953		-0.3		-0.0007		79.3		53.1						
29.395		47.0		0.928		-2.9		0.0008		79.2		43.6						
29.492		36.1		0.939		-1.6		0.0008		79.3		33.9						
29.590		27.4		0.920		1.0		0.0008		79.5		25.2						
29.688		16.5		0.909		-1.6		-0.0007		79.2		15.0						
29.785		5.2		0.892		-1.6		-0.0007		79.2		4.7						
29.883		-2.2		0.899		-1.6		0.0023		79.5		-2.0						
29.980		-12.6		0.857		1.0		0.0023		79.7		-10.8						
30.078		-25.2		0.836		-0.3		-0.0023		79.1		-21.1						
30.176		-34.3		0.817		-2.9		-0.0023		78.9		-28.1						
30.273		-46.1		0.800		-0.3		-0.0007		79.3		-36.9						
30.371		-53.5		0.794		4.8		0.0008		79.9		-42.4						
30.469		-63.5		0.777		-1.6		0.0023		79.5		-49.3						
30.566		-74.3		0.760		1.0		0.0023		79.7		-56.5						
30.664		-83.0		0.745		1.0		0.0008		79.5		-61.9						
30.762		-93.5		0.716		-0.3		-0.0007		79.3		-66.9						
30.859		-103.5		0.708		-1.6		0.0008		79.3		-73.2						
30.957		-108.7		0.685		-0.3		0.0039		79.7		-74.4						
31.055		-114.3		0.674		2.2		0.0023		79.8		-77.1						
31.152		-123.9		0.632		-1.6		-0.0038		78.9		-78.3						
31.250		-130.9		0.615		2.2		0.0023		79.8		-80.5						
31.348		-137.4		0.605		2.2		-0.0007		79.5		-83.1						
31.445		-144.3		0.580		1.0		0.0008		79.5		-83.7						
31.543		-154.3		0.559		2.2		0.0023		79.8		-86.2						
31.641		-157.4		0.535		2.2		0.0023		79.8		-84.3						
31.738		-167.8		0.517		2.2		0.0008		79.7		-86.7						
31.836		-170.9		0.487		1.0		-0.0007		79.4		-83.2						
31.934		-178.7		0.462		1.0		0.0023		79.7		-82.5						
32.031		-181.3		0.445		3.5		0.0023		79.9		-80.7						
32.129		-189.1		0.414		3.5		0.0008		79.8		-78.2						
32.227		-193.5		0.393		-0.3		-0.0007		79.3		-76.0						
32.324		-201.7		0.365		2.2		0.0023		79.8		-73.7						
32.422		-206.1		0.351		6.1		-0.0007		79.8		-72.3						
32.520		-212.2		0.315		1.0		0.0008		79.5		-66.8						
32.617		-217.8		0.294		2.2		0.0023		79.8		-64.0						
32.715		-221.7		0.256		2.2		0.0008		79.7		-56.8						
32.813		-227.8		0.214		1.0		-0.0007		79.4		-48.8						
32.910		-230.9		0.202		1.0		-0.0007		79.4		-46.5						
33.008		-235.7		0.151		3.5		0.0039		80.1		-35.6						
33.105		-243.0		0.136		3.5		0.0023		79.9		-33.2						
33.203		-247.0		0.101		1.0		-0.0038		79.1		-24.9						
33.301		-254.8		0.063		3.5		0.0023		79.9		-16.0						
33.398		-258.3		0.025		2.2		0.0008		79.7		-6.5						
33.496		-261.7		0.010		1.0		0.0008		79.5		-2.7						
33.594		-268.7		-0.031		1.0		-0.0038		79.1		8.5						
33.691		-270.9		-0.065		2.2		-0.0007		79.5		17.6						
33.789		-277.4		-0.088		2.2		-0.0038		79.2		24.5						
33.887		-281.7		-0.120		1.0		-0.0038		79.1		33.7						
33.984		-285.2		-0.149		1.0		-0.0023		79.2		42.5						
34.082		-289.1		-0.181		3.5		-0.0007		79.6		52.2						
34.180		-291.7		-0.210		6.1		-0.0038		79.5		61.3						
34.277		-292.6		-0.241		-1.6		-0.0069		78.6		70.7						
34.375		-293.5		-0.271		1.0		-0.0007		79.4		79.5						
34.473		-293.9		-0.304		4.8		-0.0023		79.6		89.5						
34.570		-297.0		-0.332		2.2		-0.0023		79.3		98.5						
34.668		-292.2		-0.344		2.2		-0.0007		79.5		100.6						
34.766		-294.8		-0.384		3.5		-0.0007		79.6		113.3						
34.863		-293.0		-0.409		2.2		-0.0038		79.2		120.0						
34.961		-291.3		-0.430		-0.3		-0.0038		79.0		125.4						
35.059		-293.0		-0.464		3.5		0.0008		79.8		136.0						
35.156		-290.9		-0.477		4.8		0.0008		79.9		138.6						
35.254		-290.0		-0.508		1.0		-0.0053		78.9		147.4						
35.352		-287.0		-0.531		2.2		-0.0007		79.5		152.4						
35.449		-283.0		-0.550		2.2		-0.0023		79.3		155.7						
35.547		-284.3		-0.575		2.2		-0.0007		79.5		163.6						
35.645		-280.4		-0.603		1.0		-0.0023		79.2		169.0						
35.742		-278.3		-0.622		1.0		0.0008		79.5		172.9						
35.840		-273.0		-0.645		3.5		-0.0007		79.6		176.0						
35.938		-268.3		-0.670		2.2		-0.0023		79.3		179.7						
36.035		-267.4		-0.687		2.2		-0.0007		79.5		183.6						
36.133		-260.9		-0.714		4.8		0.0008		79.9		186.2						
36.230		-257.8		-0.733		4.8		-0.0023		79.6		188.9						
36.328		-253.5		-0.743		-1.6		-0.0069		78.6		188.4						
36.426		-247.4		-0.758		-0.3		0.0008		79.4		187.5						
36.523		-244.8		-0.781		2.2		-0.0038		79.2		191.2						
36.621		-237.8		-0.792		1.0		-0.0007		79.4		188.3						
36.719		-233.5		-0.815		1.0		0.0008		79.5		190.2						
36.816		-227.0		-0.831		2.2		-0.0007		79.5		188.7						
36.914		-220.9		-0.861		1.0		-0.0007		79.4		190.1						
37.012		-218.3		-0.852		1.0		-0.0007		79.4		186.1						
37.109		-210.4		-0.869		2.2		0.0023		79.8		182.9						
37.207		-203.9		-0.888		4.8		0.0008		79.9		181.1						
37.305		-200.9		-0.905		1.0		-0.0053		78.9		181.8						
37.402		-197.8		-0.909		-0.3		-0.0007		79.3		179.9						
37.500		-191.3		-0.920		2.2		-0.0007		79.5		175.9						
37.598		-187.4		-0.947		1.0		-0.0007		79.4		177.5						
37.695		-179.6		-0.951		1.0		0.0008		79.5		170.8						
37.793		-173.9		-0.966		1.0		-0.0007		79.4		168.0						
37.891		-168.3		-0.960		2.2		-0.0023		79.3		161.5						
37.988		-157.8		-0.968		-1.6		-0.0023		79.0		152.8						
38.086		-152.6		-0.974		2.2		0.0023		79.8		148.7						
38.184		-146.1		-0.978		3.5		0.0023		79.9		142.9						
38.281		-136.5		-0.987		2.2		-0.0023		79.3		134.7						
38.379		-131.7		-0.991		-0.3		-0.0038		79.0		130.6						
38.477		-120.4		-0.991		1.0		0.0023		79.7		119.4						
38.574		-113.5		-0.993		2.2		-0.0038		79.2		112.7						
38.672		-107.0		-0.995		1.0		0.0008		79.5		106.5						
38.770		-95.2		-0.985		1.0		-0.0007		79.4		93.8						
38.867		-88.3		-0.974		1.0		-0.0007		79.4		86.0						
38.965		-81.7		-0.976		1.0		-0.0023		79.2		79.8						
39.063		-70.0		-0.955		-1.6		-0.0007		79.2		66.9						
39.160		-63.9		-0.960		1.0		0.0008		79.5		61.3						
39.258		-57.8		-0.953		2.2		-0.0007		79.5		55.1						
39.355		-49.1		-0.949		1.0		-0.0023		79.2		46.6						
39.453		-37.8		-0.928		-1.6		-0.0007		79.2		35.1						
39.551		-29.1		-0.926		2.2		-0.0023		79.3		27.0						
39.648		-17.8		-0.913		-0.3		-0.0007		79.3		16.3						
39.746		-9.1		-0.899		-0.3		-0.0023		79.1		8.2						
39.844		1.7		-0.880		2.2		-0.0007		79.5		-1.5						
39.941		12.2		-0.871		1.0		-0.0038		79.1		-10.6						
40.039		22.2		-0.836		-0.3		-0.0038		79.0		-18.5						
40.137		32.6		-0.829		-0.3		-0.0023		79.1		-27.0						
40.234		42.2		-0.813		2.2		0.0008		79.7		-34.3						
40.332		53.0		-0.796		1.0		-0.0023		79.2		-42.2						
40.430		61.7		-0.779		-2.9		-0.0053		78.6		-48.1						
40.527		70.4		-0.752		-1.6		0.0008		79.3		-52.9						
40.625		81.3		-0.743		1.0		-0.0115		78.3		-60.4						
40.723		90.9		-0.720		-0.3		-0.0023		79.1		-65.4						
40.820		99.1		-0.701		1.0		-0.0007		79.4		-69.5						
40.918		104.8		-0.680		2.2		-0.0007		79.5		-71.3						
41.016		115.7		-0.657		1.0		-0.0038		79.1		-76.0						
41.113		122.2		-0.640		-0.3		-0.0023		79.1		-78.2						
41.211		129.1		-0.622		1.0		-0.0007		79.4		-80.3						
41.309		137.8		-0.601		1.0		-0.0007		79.4		-82.8						
41.406		143.5		-0.565		2.2		-0.0007		79.5		-81.0						
41.504		150.9		-0.556		-1.6		-0.0007		79.2		-83.9						
41.602		158.7		-0.544		-0.3		-0.0023		79.1		-86.3						
41.699		163.0		-0.508		-0.3		-0.0038		79.0		-82.8						
41.797		167.8		-0.487		-0.3		-0.0023		79.1		-81.8						
41.895		178.7		-0.462		1.0		-0.0007		79.4		-82.5						
41.992		179.1		-0.447		-0.3		-0.0038		79.0		-80.1						
42.090		187.4		-0.416		-0.3		-0.0053		78.8		-77.9						
42.188		194.3		-0.393		1.0		-0.0023		79.2		-76.3						
42.285		197.8		-0.365		2.2		-0.0038		79.2		-72.3						
42.383		204.8		-0.344		1.0		-0.0053		78.9		-70.5						
42.480		209.1		-0.321		-1.6		-0.0084		78.4		-67.2						
42.578		214.3		-0.279		-0.3		-0.0038		79.0		-59.9						
42.676		220.4		-0.250		1.0		0.0008		79.5		-55.1						
42.773		226.1		-0.218		-0.3		-0.0069		78.7		-49.4						
42.871		229.1		-0.191		-0.3		-0.0069		78.7		-43.8						
42.969		233.9		-0.162		1.0		-0.0053		78.9		-37.8						
43.066		241.3		-0.143		2.2		-0.0069		78.9		-34.5						
43.164		245.7		-0.103		-0.3		-0.0069		78.7		-25.3						
43.262		251.7		-0.063		1.0		-0.0023		79.2		-15.9						
43.359		257.0		-0.044		3.5		-0.0038		79.3		-11.3						
43.457		261.3		-0.002		1.0		-0.0007		79.4		-0.5						
43.555		267.4		0.023		-4.1		-0.0038		78.7		6.2						
43.652		270.4		0.059		1.0		-0.0023		79.2		15.9						
43.750		274.3		0.084		-0.3		-0.0023		79.1		23.0						
43.848		276.5		0.113		1.0		-0.0023		79.2		31.4						
43.945		285.7		0.149		-0.3		-0.0007		79.3		42.6						
44.043		288.3		0.185		1.0		-0.0007		79.4		53.3						
44.141		290.0		0.208		-0.3		-0.0038		79.0		60.3						
44.238		291.7		0.239		-0.3		-0.0038		79.0		69.8						
44.336		292.2		0.275		2.2		-0.0007		79.5		80.4						
44.434		293.5		0.302		2.2		-0.0007		79.5		88.7						
44.531		293.0		0.328		-1.6		-0.0053		78.7		96.0						
44.629		292.2		0.353		-0.3		0.0008		79.4		103.1						
44.727		291.7		0.378		3.5		-0.0038		79.3		110.3						
44.824		290.4		0.405		-0.3		-0.0023		79.1		117.7						
44.922		290.9		0.435		1.0		-0.0023		79.2		126.4						
45.020		291.3		0.466		1.0		-0.0007		79.4		135.8						
45.117		290.4		0.493		1.0		-0.0023		79.2		143.3						
45.215		288.7		0.504		-0.3		-0.0023		79.1		145.5						
45.313		285.7		0.535		-0.3		0.0008		79.4		152.9						
45.410		287.4		0.559		3.5		0.0008		79.8		160.5						
45.508		280.4		0.577		2.2		-0.0007		79.5		161.9						
45.605		281.3		0.611		-2.9		-0.0007		79.1		171.9						
45.703		275.2		0.622		2.2		-0.0007		79.5		171.1						
45.801		272.6		0.645		1.0		-0.0023		79.2		175.7						
45.898		267.4		0.672		-0.3		-0.0023		79.1		179.7						
45.996		266.1		0.693		1.0		-0.0007		79.4		184.4						
46.094		260.4		0.714		2.2		-0.0023		79.3		185.9						
46.191		255.7		0.720		1.0		-0.0023		79.2		184.1						
46.289		251.3		0.739		-1.6		-0.0007		79.2		185.7						
46.387		247.0		0.764		2.2		0.0008		79.7		188.8						
46.484		243.5		0.785		3.5		-0.0023		79.5		191.2						
46.582		237.4		0.796		-0.3		-0.0038		79.0		188.9						
46.680		234.8		0.817		-1.6		0.0008		79.3		191.8						
46.777		226.5		0.829		4.8		0.0008		79.9		187.9						
46.875		218.7		0.840		1.0		-0.0038		79.1		183.7						
46.973		216.1		0.859		1.0		-0.0023		79.2		185.6						
47.070		211.7		0.861		3.5		0.0008		79.8		182.3						
47.168		205.2		0.882		3.5		-0.0023		79.5		181.0						
47.266		200.9		0.903		1.0		-0.0023		79.2		181.4						
47.363		198.7		0.911		-0.3		0.0008		79.4		181.1						
47.461		191.3		0.920		3.5		0.0008		79.8		175.9						
47.559		188.3		0.930		3.5		-0.0007		79.6		175.1						
47.656		179.6		0.949		-1.6		-0.0007		79.2		170.4						
47.754		176.1		0.941		2.2		-0.0007		79.5		165.6						
47.852		165.7		0.968		1.0		-0.0023		79.2		160.3						
47.949		161.7		0.972		1.0		-0.0007		79.4		157.2						
48.047		154.3		0.978		1.0		0.0008		79.5		151.0						
48.145		148.3		0.978		2.2		-0.0007		79.5		145.1						
48.242		140.0		0.993		2.2		-0.0023		79.3		139.0						
48.340		131.7		0.991		-0.3		-0.0023		79.1		130.6						
48.438		123.5		0.978		3.5		0.0008		79.8		120.8						
48.535		117.0		0.999		3.5		-0.0023		79.5		116.9						
48.633		106.1		0.993		1.0		-0.0038		79.1		105.4						
48.730		97.0		0.976		-1.6		-0.0007		79.2		94.7						
48.828		87.4		0.981		1.0		0.0008		79.5		85.7						
48.926		79.1		0.985		1.0		-0.0023		79.2		77.9						
49.023		67.8		0.974		-0.3		-0.0023		79.1		66.1						
49.121		62.2		0.970		2.2		-0.0007		79.5		60.3						
49.219		55.7		0.941		2.2		-0.0023		79.3		52.4						
49.316		47.0		0.945		-0.3		-0.0038		79.0		44.4						
49.414		38.3		0.924		-0.3		-0.0007		79.3		35.3						
49.512		27.8		0.920		3.5		-0.0007		79.6		25.6						
49.609		18.7		0.892		1.0		-0.0023		79.2		16.7						
49.707		8.7		0.894		-2.9		-0.0023		78.9		7.8						
49.805		0.4		0.867		2.2		-0.0007		79.5		0.4						
49.902		-12.2		0.852		-0.3		-0.0038		79.0		-10.4						
